# B(mT)	 U (V)	 std (V)	 direction 	 loop 
-599.9600	-0.0459	0.0039	1.0000	1.0000
-594.9676	-0.0577	0.0023	1.0000	1.0000
-590.0110	-0.0583	0.0023	1.0000	1.0000
-585.0048	-0.0590	0.0026	1.0000	1.0000
-580.0792	-0.0590	0.0027	1.0000	1.0000
-575.0386	-0.0591	0.0024	1.0000	1.0000
-570.0542	-0.0585	0.0025	1.0000	1.0000
-565.0082	-0.0580	0.0023	1.0000	1.0000
-560.0576	-0.0577	0.0025	1.0000	1.0000
-555.0638	-0.0579	0.0024	1.0000	1.0000
-549.9424	-0.0581	0.0022	1.0000	1.0000
-544.9612	-0.0577	0.0025	1.0000	1.0000
-539.9436	-0.0575	0.0024	1.0000	1.0000
-535.0710	-0.0572	0.0022	1.0000	1.0000
-530.0030	-0.0567	0.0024	1.0000	1.0000
-525.0824	-0.0562	0.0021	1.0000	1.0000
-519.9692	-0.0561	0.0022	1.0000	1.0000
-514.9634	-0.0558	0.0024	1.0000	1.0000
-509.9444	-0.0559	0.0023	1.0000	1.0000
-505.0668	-0.0558	0.0022	1.0000	1.0000
-499.9818	-0.0554	0.0025	1.0000	1.0000
-495.0470	-0.0554	0.0025	1.0000	1.0000
-489.9104	-0.0549	0.0024	1.0000	1.0000
-484.9496	-0.0547	0.0023	1.0000	1.0000
-479.9692	-0.0545	0.0022	1.0000	1.0000
-474.9720	-0.0544	0.0023	1.0000	1.0000
-469.9460	-0.0539	0.0021	1.0000	1.0000
-465.0960	-0.0532	0.0024	1.0000	1.0000
-460.0656	-0.0531	0.0025	1.0000	1.0000
-455.0424	-0.0530	0.0023	1.0000	1.0000
-449.9964	-0.0525	0.0021	1.0000	1.0000
-444.9420	-0.0522	0.0024	1.0000	1.0000
-440.0700	-0.0517	0.0022	1.0000	1.0000
-435.0000	-0.0516	0.0025	1.0000	1.0000
-429.9520	-0.0517	0.0024	1.0000	1.0000
-424.9080	-0.0512	0.0024	1.0000	1.0000
-420.0258	-0.0510	0.0025	1.0000	1.0000
-414.9454	-0.0511	0.0022	1.0000	1.0000
-410.0460	-0.0510	0.0023	1.0000	1.0000
-404.9500	-0.0510	0.0023	1.0000	1.0000
-400.0450	-0.0507	0.0025	1.0000	1.0000
-394.9440	-0.0507	0.0023	1.0000	1.0000
-390.0440	-0.0501	0.0022	1.0000	1.0000
-384.9436	-0.0498	0.0025	1.0000	1.0000
-379.9886	-0.0498	0.0024	1.0000	1.0000
-375.0308	-0.0498	0.0026	1.0000	1.0000
-370.0408	-0.0496	0.0025	1.0000	1.0000
-365.0544	-0.0496	0.0025	1.0000	1.0000
-359.9116	-0.0497	0.0025	1.0000	1.0000
-354.9636	-0.0497	0.0024	1.0000	1.0000
-349.9936	-0.0494	0.0024	1.0000	1.0000
-345.0224	-0.0490	0.0021	1.0000	1.0000
-340.0424	-0.0489	0.0024	1.0000	1.0000
-335.0648	-0.0490	0.0024	1.0000	1.0000
-329.9064	-0.0490	0.0025	1.0000	1.0000
-324.9432	-0.0489	0.0023	1.0000	1.0000
-319.9632	-0.0488	0.0026	1.0000	1.0000
-314.9800	-0.0486	0.0024	1.0000	1.0000
-309.9800	-0.0490	0.0023	1.0000	1.0000
-304.9832	-0.0491	0.0022	1.0000	1.0000
-300.0032	-0.0489	0.0024	1.0000	1.0000
-295.0240	-0.0490	0.0023	1.0000	1.0000
-290.0490	-0.0489	0.0025	1.0000	1.0000
-285.0636	-0.0489	0.0023	1.0000	1.0000
-280.0236	-0.0484	0.0023	1.0000	1.0000
-274.9900	-0.0481	0.0023	1.0000	1.0000
-269.9900	-0.0478	0.0022	1.0000	1.0000
-264.9940	-0.0477	0.0023	1.0000	1.0000
-260.0190	-0.0473	0.0023	1.0000	1.0000
-255.0360	-0.0476	0.0023	1.0000	1.0000
-250.0110	-0.0475	0.0023	1.0000	1.0000
-244.9852	-0.0475	0.0024	1.0000	1.0000
-239.9552	-0.0470	0.0023	1.0000	1.0000
-234.9236	-0.0465	0.0026	1.0000	1.0000
-230.0852	-0.0464	0.0025	1.0000	1.0000
-225.0482	-0.0454	0.0024	1.0000	1.0000
-220.0332	-0.0448	0.0023	1.0000	1.0000
-215.0158	-0.0442	0.0023	1.0000	1.0000
-209.9808	-0.0439	0.0022	1.0000	1.0000
-204.9464	-0.0442	0.0022	1.0000	1.0000
-199.9164	-0.0449	0.0024	1.0000	1.0000
-195.0892	-0.0450	0.0022	1.0000	1.0000
-190.0792	-0.0444	0.0022	1.0000	1.0000
-185.0668	-0.0445	0.0023	1.0000	1.0000
-180.0268	-0.0444	0.0023	1.0000	1.0000
-174.9856	-0.0441	0.0020	1.0000	1.0000
-169.9306	-0.0436	0.0025	1.0000	1.0000
-165.0802	-0.0432	0.0022	1.0000	1.0000
-160.0852	-0.0429	0.0022	1.0000	1.0000
-155.0884	-0.0424	0.0021	1.0000	1.0000
-150.0484	-0.0422	0.0023	1.0000	1.0000
-145.0086	-0.0415	0.0025	1.0000	1.0000
-139.9736	-0.0412	0.0025	1.0000	1.0000
-134.9382	-0.0407	0.0021	1.0000	1.0000
-130.0950	-0.0399	0.0022	1.0000	1.0000
-125.0500	-0.0394	0.0021	1.0000	1.0000
-120.0350	-0.0390	0.0024	1.0000	1.0000
-115.0200	-0.0386	0.0019	1.0000	1.0000
-109.9350	-0.0378	0.0014	1.0000	1.0000
-105.0534	-0.0360	0.0010	1.0000	1.0000
-99.9348	-0.0353	0.0010	1.0000	1.0000
-95.0196	-0.0351	0.0025	1.0000	1.0000
-89.9686	-0.0336	0.0019	1.0000	1.0000
-84.9236	-0.0323	0.0018	1.0000	1.0000
-80.0584	-0.0309	0.0019	1.0000	1.0000
-74.9884	-0.0295	0.0019	1.0000	1.0000
-69.9272	-0.0279	0.0019	1.0000	1.0000
-65.0696	-0.0266	0.0020	1.0000	1.0000
-60.0264	-0.0253	0.0021	1.0000	1.0000
-54.9864	-0.0238	0.0023	1.0000	1.0000
-49.9338	-0.0221	0.0025	1.0000	1.0000
-45.0810	-0.0204	0.0021	1.0000	1.0000
-40.0180	-0.0183	0.0023	1.0000	1.0000
-34.9530	-0.0164	0.0023	1.0000	1.0000
-30.0944	-0.0147	0.0021	1.0000	1.0000
-25.0344	-0.0129	0.0024	1.0000	1.0000
-20.0010	-0.0112	0.0023	1.0000	1.0000
-14.9760	-0.0095	0.0024	1.0000	1.0000
-9.9244	-0.0071	0.0023	1.0000	1.0000
-5.0668	-0.0056	0.0023	1.0000	1.0000
0.0148	-0.0037	0.0025	1.0000	1.0000
4.9012	-0.0021	0.0025	1.0000	1.0000
9.9300	-0.0001	0.0024	1.0000	1.0000
14.9300	0.0012	0.0022	1.0000	1.0000
19.9742	0.0029	0.0024	1.0000	1.0000
25.0392	0.0047	0.0022	1.0000	1.0000
29.9080	0.0072	0.0023	1.0000	1.0000
34.9830	0.0090	0.0020	1.0000	1.0000
40.0388	0.0120	0.0023	1.0000	1.0000
45.0838	0.0140	0.0022	1.0000	1.0000
49.9450	0.0160	0.0022	1.0000	1.0000
55.0200	0.0183	0.0024	1.0000	1.0000
59.9004	0.0200	0.0023	1.0000	1.0000
64.9904	0.0215	0.0023	1.0000	1.0000
70.0692	0.0236	0.0022	1.0000	1.0000
74.9364	0.0259	0.0023	1.0000	1.0000
79.9908	0.0279	0.0022	1.0000	1.0000
85.0308	0.0299	0.0023	1.0000	1.0000
90.0864	0.0322	0.0024	1.0000	1.0000
94.9536	0.0343	0.0021	1.0000	1.0000
100.0140	0.0360	0.0026	1.0000	1.0000
105.0640	0.0376	0.0023	1.0000	1.0000
110.0948	0.0392	0.0024	1.0000	1.0000
114.9044	0.0409	0.0023	1.0000	1.0000
119.9364	0.0422	0.0023	1.0000	1.0000
124.9964	0.0428	0.0023	1.0000	1.0000
130.0608	0.0439	0.0023	1.0000	1.0000
134.9280	0.0445	0.0024	1.0000	1.0000
139.9840	0.0453	0.0020	1.0000	1.0000
145.0190	0.0459	0.0022	1.0000	1.0000
150.0720	0.0462	0.0024	1.0000	1.0000
154.9488	0.0465	0.0024	1.0000	1.0000
160.0198	0.0469	0.0024	1.0000	1.0000
165.0748	0.0466	0.0021	1.0000	1.0000
169.9372	0.0475	0.0023	1.0000	1.0000
175.0222	0.0475	0.0023	1.0000	1.0000
180.0896	0.0477	0.0024	1.0000	1.0000
184.9184	0.0482	0.0022	1.0000	1.0000
189.9610	0.0491	0.0023	1.0000	1.0000
195.0360	0.0489	0.0024	1.0000	1.0000
199.9044	0.0491	0.0025	1.0000	1.0000
204.9644	0.0489	0.0021	1.0000	1.0000
210.0112	0.0493	0.0025	1.0000	1.0000
215.0162	0.0492	0.0023	1.0000	1.0000
220.0272	0.0489	0.0022	1.0000	1.0000
225.0572	0.0493	0.0023	1.0000	1.0000
230.0848	0.0490	0.0022	1.0000	1.0000
234.9040	0.0493	0.0022	1.0000	1.0000
239.9250	0.0498	0.0025	1.0000	1.0000
244.9500	0.0499	0.0024	1.0000	1.0000
249.9770	0.0496	0.0021	1.0000	1.0000
255.0120	0.0499	0.0026	1.0000	1.0000
260.0450	0.0501	0.0023	1.0000	1.0000
265.0700	0.0500	0.0023	1.0000	1.0000
270.0990	0.0509	0.0024	1.0000	1.0000
274.9422	0.0508	0.0023	1.0000	1.0000
279.9872	0.0509	0.0025	1.0000	1.0000
285.0322	0.0514	0.0022	1.0000	1.0000
290.0748	0.0511	0.0022	1.0000	1.0000
294.9036	0.0510	0.0022	1.0000	1.0000
299.9324	0.0508	0.0025	1.0000	1.0000
304.9524	0.0506	0.0024	1.0000	1.0000
309.9706	0.0507	0.0024	1.0000	1.0000
314.9756	0.0498	0.0023	1.0000	1.0000
319.9806	0.0493	0.0023	1.0000	1.0000
324.9856	0.0491	0.0023	1.0000	1.0000
329.9894	0.0491	0.0023	1.0000	1.0000
334.9844	0.0486	0.0024	1.0000	1.0000
339.9788	0.0488	0.0022	1.0000	1.0000
344.9688	0.0488	0.0022	1.0000	1.0000
349.9504	0.0492	0.0022	1.0000	1.0000
355.0672	0.0494	0.0022	1.0000	1.0000
359.9928	0.0496	0.0020	1.0000	1.0000
364.9478	0.0493	0.0023	1.0000	1.0000
369.9036	0.0500	0.0024	1.0000	1.0000
375.0620	0.0502	0.0024	1.0000	1.0000
380.0190	0.0507	0.0021	1.0000	1.0000
384.9640	0.0504	0.0022	1.0000	1.0000
389.9080	0.0508	0.0023	1.0000	1.0000
395.0456	0.0509	0.0024	1.0000	1.0000
399.9868	0.0515	0.0022	1.0000	1.0000
404.9318	0.0514	0.0023	1.0000	1.0000
410.0704	0.0519	0.0022	1.0000	1.0000
415.0004	0.0516	0.0024	1.0000	1.0000
419.9248	0.0520	0.0023	1.0000	1.0000
425.0312	0.0518	0.0020	1.0000	1.0000
429.9460	0.0514	0.0025	1.0000	1.0000
435.0680	0.0513	0.0023	1.0000	1.0000
439.9840	0.0516	0.0023	1.0000	1.0000
445.0800	0.0513	0.0024	1.0000	1.0000
449.9680	0.0509	0.0022	1.0000	1.0000
455.0328	0.0507	0.0023	1.0000	1.0000
459.9072	0.0502	0.0022	1.0000	1.0000
464.9824	0.0502	0.0021	1.0000	1.0000
470.0498	0.0497	0.0022	1.0000	1.0000
474.9148	0.0497	0.0023	1.0000	1.0000
479.9296	0.0498	0.0022	1.0000	1.0000
484.9060	0.0499	0.0021	1.0000	1.0000
490.0636	0.0494	0.0021	1.0000	1.0000
495.0244	0.0498	0.0022	1.0000	1.0000
499.9852	0.0496	0.0025	1.0000	1.0000
504.9460	0.0494	0.0024	1.0000	1.0000
510.0712	0.0488	0.0020	1.0000	1.0000
515.0008	0.0481	0.0022	1.0000	1.0000
520.0750	0.0480	0.0022	1.0000	1.0000
524.9576	0.0470	0.0021	1.0000	1.0000
530.0228	0.0464	0.0024	1.0000	1.0000
535.0740	0.0457	0.0022	1.0000	1.0000
540.0636	0.0454	0.0022	1.0000	1.0000
545.0280	0.0466	0.0025	1.0000	1.0000
549.9420	0.0472	0.0024	1.0000	1.0000
555.0128	0.0465	0.0023	1.0000	1.0000
560.0584	0.0466	0.0022	1.0000	1.0000
565.0280	0.0468	0.0023	1.0000	1.0000
569.9672	0.0473	0.0024	1.0000	1.0000
574.9154	0.0481	0.0023	1.0000	1.0000
579.9696	0.0481	0.0023	1.0000	1.0000
585.0164	0.0484	0.0022	1.0000	1.0000
589.9378	0.0489	0.0023	1.0000	1.0000
594.9272	0.0495	0.0024	1.0000	1.0000
599.9320	0.0491	0.0023	1.0000	1.0000
600.0080	0.0496	0.0025	-1.0000	1.0000
595.0160	0.0486	0.0022	-1.0000	1.0000
590.0000	0.0492	0.0023	-1.0000	1.0000
585.0388	0.0492	0.0023	-1.0000	1.0000
580.0038	0.0493	0.0023	-1.0000	1.0000
574.9880	0.0493	0.0023	-1.0000	1.0000
570.0180	0.0490	0.0023	-1.0000	1.0000
564.9900	0.0495	0.0025	-1.0000	1.0000
560.0078	0.0504	0.0023	-1.0000	1.0000
554.9936	0.0507	0.0024	-1.0000	1.0000
550.0712	0.0501	0.0022	-1.0000	1.0000
544.9430	0.0493	0.0022	-1.0000	1.0000
539.9646	0.0497	0.0021	-1.0000	1.0000
535.0800	0.0502	0.0021	-1.0000	1.0000
529.9840	0.0498	0.0024	-1.0000	1.0000
525.0050	0.0502	0.0023	-1.0000	1.0000
520.0124	0.0504	0.0022	-1.0000	1.0000
514.9148	0.0504	0.0024	-1.0000	1.0000
510.0160	0.0505	0.0023	-1.0000	1.0000
504.9724	0.0503	0.0024	-1.0000	1.0000
499.9108	0.0502	0.0027	-1.0000	1.0000
495.0020	0.0502	0.0022	-1.0000	1.0000
490.0404	0.0505	0.0020	-1.0000	1.0000
485.0068	0.0503	0.0024	-1.0000	1.0000
480.0148	0.0499	0.0021	-1.0000	1.0000
475.0644	0.0503	0.0019	-1.0000	1.0000
470.0720	0.0507	0.0019	-1.0000	1.0000
465.0488	0.0511	0.0019	-1.0000	1.0000
460.0528	0.0513	0.0021	-1.0000	1.0000
455.0712	0.0505	0.0023	-1.0000	1.0000
450.0554	0.0507	0.0024	-1.0000	1.0000
445.0270	0.0511	0.0023	-1.0000	1.0000
439.9902	0.0509	0.0022	-1.0000	1.0000
434.9514	0.0511	0.0024	-1.0000	1.0000
430.0844	0.0516	0.0022	-1.0000	1.0000
425.0196	0.0517	0.0021	-1.0000	1.0000
419.9164	0.0515	0.0025	-1.0000	1.0000
415.0064	0.0517	0.0022	-1.0000	1.0000
409.9200	0.0510	0.0025	-1.0000	1.0000
405.0300	0.0506	0.0022	-1.0000	1.0000
399.9600	0.0507	0.0023	-1.0000	1.0000
395.0802	0.0507	0.0025	-1.0000	1.0000
390.0852	0.0492	0.0021	-1.0000	1.0000
385.0918	0.0499	0.0022	-1.0000	1.0000
379.9386	0.0499	0.0021	-1.0000	1.0000
374.9856	0.0498	0.0021	-1.0000	1.0000
370.0556	0.0513	0.0023	-1.0000	1.0000
364.9242	0.0515	0.0023	-1.0000	1.0000
359.9592	0.0514	0.0022	-1.0000	1.0000
354.9912	0.0519	0.0023	-1.0000	1.0000
350.0012	0.0520	0.0022	-1.0000	1.0000
345.0190	0.0522	0.0023	-1.0000	1.0000
340.0940	0.0516	0.0023	-1.0000	1.0000
334.9712	0.0508	0.0023	-1.0000	1.0000
330.0412	0.0497	0.0023	-1.0000	1.0000
324.9000	0.0493	0.0021	-1.0000	1.0000
319.9000	0.0492	0.0024	-1.0000	1.0000
314.9060	0.0485	0.0024	-1.0000	1.0000
309.9360	0.0475	0.0025	-1.0000	1.0000
304.9670	0.0467	0.0023	-1.0000	1.0000
300.0020	0.0466	0.0022	-1.0000	1.0000
295.0220	0.0477	0.0021	-1.0000	1.0000
289.9820	0.0483	0.0023	-1.0000	1.0000
284.9490	0.0485	0.0023	-1.0000	1.0000
279.9440	0.0487	0.0021	-1.0000	1.0000
274.9360	0.0489	0.0022	-1.0000	1.0000
269.9160	0.0497	0.0022	-1.0000	1.0000
264.9030	0.0500	0.0023	-1.0000	1.0000
259.9180	0.0507	0.0022	-1.0000	1.0000
254.9190	0.0504	0.0021	-1.0000	1.0000
250.0662	0.0509	0.0023	-1.0000	1.0000
245.0096	0.0504	0.0023	-1.0000	1.0000
239.9446	0.0497	0.0023	-1.0000	1.0000
235.0840	0.0506	0.0022	-1.0000	1.0000
230.0340	0.0503	0.0022	-1.0000	1.0000
224.9888	0.0501	0.0024	-1.0000	1.0000
219.9788	0.0505	0.0023	-1.0000	1.0000
214.9718	0.0507	0.0024	-1.0000	1.0000
209.9868	0.0503	0.0021	-1.0000	1.0000
205.0030	0.0515	0.0024	-1.0000	1.0000
200.0280	0.0511	0.0021	-1.0000	1.0000
195.0482	0.0515	0.0025	-1.0000	1.0000
190.0332	0.0514	0.0026	-1.0000	1.0000
185.0134	0.0516	0.0021	-1.0000	1.0000
179.9584	0.0513	0.0022	-1.0000	1.0000
174.9082	0.0511	0.0024	-1.0000	1.0000
170.0938	0.0508	0.0024	-1.0000	1.0000
165.0752	0.0508	0.0023	-1.0000	1.0000
160.0152	0.0513	0.0025	-1.0000	1.0000
154.9568	0.0503	0.0022	-1.0000	1.0000
149.9168	0.0505	0.0025	-1.0000	1.0000
145.0774	0.0503	0.0026	-1.0000	1.0000
140.0124	0.0498	0.0023	-1.0000	1.0000
134.9486	0.0493	0.0021	-1.0000	1.0000
129.9136	0.0495	0.0024	-1.0000	1.0000
125.0800	0.0489	0.0024	-1.0000	1.0000
120.0700	0.0480	0.0023	-1.0000	1.0000
115.0600	0.0478	0.0025	-1.0000	1.0000
109.9400	0.0469	0.0025	-1.0000	1.0000
105.0248	0.0459	0.0022	-1.0000	1.0000
99.9672	0.0449	0.0023	-1.0000	1.0000
94.9122	0.0438	0.0020	-1.0000	1.0000
90.0502	0.0426	0.0022	-1.0000	1.0000
84.9852	0.0418	0.0023	-1.0000	1.0000
79.9294	0.0405	0.0024	-1.0000	1.0000
75.0766	0.0390	0.0024	-1.0000	1.0000
70.0480	0.0375	0.0022	-1.0000	1.0000
65.0230	0.0358	0.0024	-1.0000	1.0000
59.9628	0.0348	0.0025	-1.0000	1.0000
55.1004	0.0329	0.0024	-1.0000	1.0000
50.0354	0.0314	0.0022	-1.0000	1.0000
44.9704	0.0298	0.0023	-1.0000	1.0000
40.1000	0.0285	0.0024	-1.0000	1.0000
35.0250	0.0269	0.0024	-1.0000	1.0000
29.9820	0.0253	0.0022	-1.0000	1.0000
24.9470	0.0238	0.0025	-1.0000	1.0000
19.9000	0.0222	0.0023	-1.0000	1.0000
15.0520	0.0204	0.0025	-1.0000	1.0000
9.9868	0.0181	0.0024	-1.0000	1.0000
4.9168	0.0153	0.0024	-1.0000	1.0000
0.0856	0.0138	0.0024	-1.0000	1.0000
-4.9344	0.0116	0.0022	-1.0000	1.0000
-9.9796	0.0090	0.0023	-1.0000	1.0000
-15.0346	0.0069	0.0025	-1.0000	1.0000
-20.0896	0.0050	0.0021	-1.0000	1.0000
-24.9424	0.0034	0.0022	-1.0000	1.0000
-29.9940	0.0016	0.0021	-1.0000	1.0000
-35.0440	-0.0002	0.0025	-1.0000	1.0000
-39.9016	-0.0023	0.0025	-1.0000	1.0000
-44.9666	-0.0041	0.0025	-1.0000	1.0000
-50.0316	-0.0062	0.0025	-1.0000	1.0000
-55.0966	-0.0079	0.0022	-1.0000	1.0000
-59.9620	-0.0092	0.0026	-1.0000	1.0000
-65.0320	-0.0113	0.0021	-1.0000	1.0000
-70.0810	-0.0132	0.0023	-1.0000	1.0000
-74.9146	-0.0151	0.0022	-1.0000	1.0000
-79.9664	-0.0165	0.0022	-1.0000	1.0000
-85.0314	-0.0182	0.0025	-1.0000	1.0000
-89.9042	-0.0201	0.0023	-1.0000	1.0000
-94.9892	-0.0220	0.0024	-1.0000	1.0000
-100.0326	-0.0243	0.0024	-1.0000	1.0000
-105.0376	-0.0255	0.0023	-1.0000	1.0000
-110.0894	-0.0272	0.0024	-1.0000	1.0000
-114.9806	-0.0294	0.0020	-1.0000	1.0000
-120.0420	-0.0304	0.0022	-1.0000	1.0000
-125.0670	-0.0321	0.0021	-1.0000	1.0000
-129.8998	-0.0328	0.0025	-1.0000	1.0000
-134.9448	-0.0329	0.0023	-1.0000	1.0000
-139.9942	-0.0336	0.0023	-1.0000	1.0000
-145.0492	-0.0342	0.0022	-1.0000	1.0000
-149.9040	-0.0344	0.0023	-1.0000	1.0000
-154.9640	-0.0356	0.0022	-1.0000	1.0000
-160.0100	-0.0364	0.0023	-1.0000	1.0000
-165.0350	-0.0366	0.0023	-1.0000	1.0000
-170.0660	-0.0373	0.0024	-1.0000	1.0000
-174.9044	-0.0385	0.0023	-1.0000	1.0000
-179.9444	-0.0386	0.0022	-1.0000	1.0000
-184.9844	-0.0382	0.0022	-1.0000	1.0000
-190.0550	-0.0379	0.0022	-1.0000	1.0000
-194.9750	-0.0384	0.0025	-1.0000	1.0000
-200.0328	-0.0381	0.0023	-1.0000	1.0000
-204.9478	-0.0384	0.0023	-1.0000	1.0000
-209.9108	-0.0388	0.0024	-1.0000	1.0000
-214.9758	-0.0388	0.0023	-1.0000	1.0000
-220.0584	-0.0388	0.0025	-1.0000	1.0000
-224.9736	-0.0385	0.0024	-1.0000	1.0000
-230.0516	-0.0391	0.0022	-1.0000	1.0000
-235.0216	-0.0398	0.0024	-1.0000	1.0000
-240.0140	-0.0404	0.0023	-1.0000	1.0000
-245.0640	-0.0410	0.0022	-1.0000	1.0000
-249.9096	-0.0404	0.0022	-1.0000	1.0000
-254.9496	-0.0408	0.0023	-1.0000	1.0000
-259.9860	-0.0408	0.0026	-1.0000	1.0000
-265.0110	-0.0417	0.0022	-1.0000	1.0000
-270.0312	-0.0416	0.0025	-1.0000	1.0000
-275.0362	-0.0414	0.0024	-1.0000	1.0000
-280.0496	-0.0418	0.0024	-1.0000	1.0000
-285.0896	-0.0427	0.0023	-1.0000	1.0000
-289.9210	-0.0426	0.0022	-1.0000	1.0000
-294.9260	-0.0411	0.0012	-1.0000	1.0000
-299.9310	-0.0420	0.0022	-1.0000	1.0000
-304.9360	-0.0410	0.0018	-1.0000	1.0000
-309.9320	-0.0406	0.0010	-1.0000	1.0000
-315.0904	-0.0409	0.0009	-1.0000	1.0000
-320.0588	-0.0409	0.0013	-1.0000	1.0000
-325.0538	-0.0421	0.0021	-1.0000	1.0000
-330.0416	-0.0428	0.0024	-1.0000	1.0000
-335.0066	-0.0430	0.0026	-1.0000	1.0000
-339.9644	-0.0430	0.0022	-1.0000	1.0000
-345.0968	-0.0439	0.0022	-1.0000	1.0000
-350.0570	-0.0447	0.0024	-1.0000	1.0000
-355.0820	-0.0458	0.0025	-1.0000	1.0000
-360.0762	-0.0465	0.0022	-1.0000	1.0000
-364.9912	-0.0458	0.0020	-1.0000	1.0000
-369.9398	-0.0458	0.0021	-1.0000	1.0000
-374.9748	-0.0450	0.0022	-1.0000	1.0000
-379.9930	-0.0450	0.0025	-1.0000	1.0000
-384.9680	-0.0448	0.0021	-1.0000	1.0000
-389.9332	-0.0448	0.0014	-1.0000	1.0000
-395.0708	-0.0442	0.0015	-1.0000	1.0000
-399.9948	-0.0446	0.0022	-1.0000	1.0000
-405.0804	-0.0448	0.0024	-1.0000	1.0000
-409.9722	-0.0447	0.0018	-1.0000	1.0000
-415.0630	-0.0453	0.0027	-1.0000	1.0000
-419.9600	-0.0450	0.0022	-1.0000	1.0000
-425.0560	-0.0440	0.0017	-1.0000	1.0000
-429.9626	-0.0445	0.0015	-1.0000	1.0000
-435.0742	-0.0454	0.0018	-1.0000	1.0000
-439.9604	-0.0453	0.0017	-1.0000	1.0000
-445.0096	-0.0454	0.0012	-1.0000	1.0000
-450.0280	-0.0467	0.0012	-1.0000	1.0000
-455.0200	-0.0476	0.0018	-1.0000	1.0000
-460.0760	-0.0483	0.0018	-1.0000	1.0000
-464.9760	-0.0500	0.0019	-1.0000	1.0000
-470.0040	-0.0505	0.0018	-1.0000	1.0000
-474.9960	-0.0508	0.0022	-1.0000	1.0000
-480.0108	-0.0503	0.0027	-1.0000	1.0000
-485.0340	-0.0503	0.0022	-1.0000	1.0000
-490.0614	-0.0497	0.0025	-1.0000	1.0000
-495.0898	-0.0496	0.0020	-1.0000	1.0000
-500.0032	-0.0492	0.0023	-1.0000	1.0000
-505.0900	-0.0487	0.0024	-1.0000	1.0000
-510.0820	-0.0486	0.0023	-1.0000	1.0000
-515.0668	-0.0497	0.0023	-1.0000	1.0000
-519.9652	-0.0497	0.0021	-1.0000	1.0000
-525.0560	-0.0492	0.0015	-1.0000	1.0000
-529.9752	-0.0491	0.0016	-1.0000	1.0000
-535.0292	-0.0495	0.0018	-1.0000	1.0000
-539.9540	-0.0494	0.0020	-1.0000	1.0000
-545.0456	-0.0494	0.0019	-1.0000	1.0000
-549.9380	-0.0495	0.0021	-1.0000	1.0000
-555.0260	-0.0499	0.0022	-1.0000	1.0000
-559.9400	-0.0500	0.0025	-1.0000	1.0000
-564.9732	-0.0503	0.0019	-1.0000	1.0000
-569.9506	-0.0504	0.0017	-1.0000	1.0000
-575.0566	-0.0510	0.0022	-1.0000	1.0000
-580.0456	-0.0512	0.0018	-1.0000	1.0000
-585.0428	-0.0505	0.0019	-1.0000	1.0000
-590.0764	-0.0512	0.0022	-1.0000	1.0000
-595.0092	-0.0513	0.0022	-1.0000	1.0000
-600.0208	-0.0519	0.0025	-1.0000	1.0000
